Frequency Set (GHz)	THz Photocurrent (nA)	Frequency Act (GHz)	Amplitude (via StrMod)	Phase (via StrMod)
90.000	-0.067	90.000	834.390	0.008
90.100	0.130	90.041	856.150	0.256
90.200	0.181	90.136	843.876	0.835
90.300	-0.035	90.240	684.754	1.256
90.400	0.008	90.341	621.424	1.655
90.500	-0.043	90.447	588.060	2.025
90.600	-0.004	90.542	620.083	2.366
90.700	-0.090	90.638	643.609	2.798
90.800	-0.018	90.740	514.412	3.219
90.900	0.128	90.842	649.768	3.566
91.000	-0.076	90.944	636.914	4.128
91.100	0.036	91.039	492.590	4.745
91.200	-0.012	91.137	385.825	5.011
91.300	-0.032	91.241	356.188	5.321
91.400	-0.035	91.339	300.104	5.591
91.500	-0.001	91.437	300.289	5.901
91.600	0.032	91.540	299.158	0.145
91.700	0.005	91.642	200.679	0.212
91.800	0.049	91.739	216.772	0.361
91.900	-0.056	91.841	241.378	0.643
92.000	-0.002	91.945	259.461	0.893
92.100	0.038	92.040	281.223	1.276
92.200	-0.006	92.144	274.790	1.659
92.300	-0.015	92.242	301.140	2.095
92.400	-0.005	92.344	229.700	2.464
92.500	0.012	92.447	213.315	2.690
92.600	0.026	92.546	156.703	2.683
92.700	-0.028	92.646	255.452	2.440
92.800	-0.031	92.741	385.468	2.981
92.900	0.131	92.842	501.855	3.412
93.000	-0.100	92.945	605.847	3.972
93.100	0.027	93.042	616.872	4.401
93.200	-0.039	93.144	671.026	4.907
93.300	0.084	93.244	675.220	5.396
93.400	0.108	93.339	702.935	5.671
93.500	0.121	93.440	891.161	6.231
93.600	0.169	93.542	794.893	0.445
93.700	-0.014	93.644	869.631	0.896
93.800	0.123	93.738	843.159	1.433
93.900	-0.032	93.839	751.810	1.839
94.000	0.180	93.937	854.886	2.309
94.100	-0.071	94.038	661.468	2.795
94.200	-0.079	94.143	629.466	3.040
94.300	0.051	94.246	790.924	3.426
94.400	0.009	94.339	793.511	3.952
94.500	-0.027	94.443	727.246	4.412
94.600	0.019	94.543	724.875	4.844
94.700	-0.110	94.648	765.085	5.336
94.800	0.195	94.739	739.514	5.907
94.900	0.123	94.838	581.094	0.251
95.000	0.014	94.943	410.698	0.657
95.100	-0.077	95.047	406.045	0.717
95.200	0.028	95.151	399.889	1.376
95.300	-0.011	95.240	257.228	1.967
95.400	0.031	95.341	126.328	1.917
95.500	0.011	95.444	158.810	1.633
95.600	-0.010	95.546	188.331	1.787
95.700	0.041	95.643	232.885	1.946
95.800	0.000	95.747	301.994	2.442
95.900	0.019	95.839	346.289	2.655
96.000	0.030	95.950	459.837	3.221
96.100	-0.044	96.044	556.853	3.725
96.200	0.040	96.140	517.572	4.614
96.300	-0.041	96.249	392.819	5.064
96.400	0.006	96.346	333.179	5.588
96.500	0.005	96.445	229.000	5.962
96.600	0.051	96.547	200.525	6.236
96.700	-0.057	96.641	150.281	0.320
96.800	-0.005	96.745	67.062	0.481
96.900	-0.010	96.842	86.294	5.707
97.000	-0.011	96.942	183.813	5.891
97.100	0.076	97.039	302.153	0.026
97.200	0.051	97.143	445.601	0.632
97.300	0.048	97.249	495.406	1.229
97.400	-0.025	97.339	559.251	1.870
97.500	-0.102	97.448	542.802	2.352
97.600	-0.048	97.545	492.466	3.072
97.700	-0.049	97.648	390.482	3.297
97.800	-0.022	97.741	403.059	3.669
97.900	0.090	97.841	361.460	3.889
98.000	0.006	97.942	433.347	4.150
98.100	-0.006	98.044	504.455	4.673
98.200	0.002	98.141	555.912	5.092
98.300	0.066	98.244	543.651	5.741
98.400	-0.086	98.342	500.747	6.096
98.500	-0.044	98.444	541.477	0.399
98.600	0.033	98.544	409.704	0.899
98.700	-0.018	98.645	354.557	1.236
98.800	0.007	98.743	282.145	1.444
98.900	-0.019	98.841	354.846	1.809
99.000	0.019	98.943	300.134	2.111
99.100	0.027	99.041	319.343	2.524
99.200	0.065	99.144	323.393	2.887
99.300	-0.035	99.245	324.723	3.384
99.400	-0.036	99.340	294.694	3.737
99.500	0.001	99.453	254.822	4.125
99.600	-0.042	99.541	243.226	4.533
99.700	-0.009	99.643	186.535	4.784
99.800	-0.037	99.744	221.711	4.953
99.900	0.021	99.839	209.794	5.414
100.000	-0.033	99.939	214.252	5.875
100.100	-0.061	100.043	169.630	6.210
100.200	0.001	100.143	99.635	0.340
100.300	0.057	100.244	111.771	6.085
100.400	0.029	100.344	156.122	0.092
100.500	-0.008	100.443	233.154	0.389
100.600	-0.040	100.545	250.236	0.933
100.700	0.008	100.643	235.031	1.237
100.800	0.007	100.741	292.273	1.680
100.900	-0.005	100.840	280.812	1.974
101.000	-0.011	100.942	335.955	2.345
101.100	0.004	101.042	342.355	2.882
101.200	-0.052	101.137	304.736	3.245
101.300	0.020	101.245	315.219	3.450
101.400	-0.052	101.341	371.787	3.749
101.500	0.075	101.443	469.010	4.145
101.600	-0.019	101.538	448.163	4.731
101.700	-0.005	101.646	435.786	5.086
101.800	0.070	101.741	426.234	5.327
101.900	-0.007	101.839	567.091	5.609
102.000	-0.020	101.949	753.412	6.187
102.100	-0.134	102.036	799.048	0.509
102.200	-0.113	102.139	720.500	1.028
102.300	-0.033	102.239	798.946	1.433
102.400	0.019	102.337	780.326	2.032
102.500	-0.125	102.441	688.996	2.613
102.600	-0.139	102.537	597.106	3.073
102.700	0.002	102.640	525.317	3.434
102.800	-0.030	102.745	473.277	3.763
102.900	-0.080	102.845	545.044	4.096
103.000	-0.013	102.945	511.458	4.624
103.100	0.011	103.037	473.981	5.118
103.200	-0.095	103.142	461.880	5.550
103.300	0.009	103.241	374.571	6.181
103.400	-0.023	103.346	285.146	0.250
103.500	0.004	103.445	193.446	0.547
103.600	0.019	103.541	178.473	0.537
103.700	-0.010	103.643	172.154	0.971
103.800	0.025	103.740	142.611	0.947
103.900	0.043	103.845	174.730	1.130
104.000	-0.013	103.945	202.245	1.403
104.100	-0.028	104.044	190.023	1.824
104.200	0.050	104.146	170.144	1.989
104.300	0.016	104.245	269.126	2.152
104.400	-0.011	104.338	283.413	2.722
104.500	-0.010	104.438	324.642	3.228
104.600	-0.062	104.538	258.145	3.781
104.700	-0.065	104.643	229.266	3.798
104.800	-0.045	104.742	286.117	4.199
104.900	0.008	104.845	284.557	4.577
105.000	0.024	104.940	306.534	5.078
105.100	0.071	105.040	266.825	5.444
105.200	0.025	105.142	263.130	5.729
105.300	-0.068	105.236	255.504	6.095
105.400	0.039	105.345	279.233	0.063
105.500	-0.053	105.435	291.578	0.529
105.600	-0.056	105.538	265.971	0.876
105.700	0.012	105.643	259.215	1.064
105.800	-0.008	105.740	286.028	1.244
105.900	-0.039	105.842	386.748	1.615
106.000	0.027	105.947	441.656	2.241
106.100	-0.021	106.038	396.141	2.677
106.200	-0.036	106.143	386.870	3.157
106.300	0.012	106.244	301.234	3.382
106.400	-0.040	106.351	388.747	3.498
106.500	-0.064	106.441	456.934	3.985
106.600	-0.053	106.540	507.519	4.235
106.700	0.039	106.639	694.824	4.755
106.800	0.026	106.739	641.888	5.418
106.900	-0.047	106.844	679.862	5.651
107.000	0.108	106.945	889.031	0.207
107.100	-0.026	107.041	633.220	0.678
107.200	-0.014	107.142	668.752	1.233
107.300	-0.022	107.240	453.191	1.792
107.400	-0.027	107.343	352.818	1.943
107.500	0.054	107.438	346.312	2.250
107.600	-0.042	107.543	309.397	2.376
107.700	-0.023	107.642	399.202	2.540
107.800	0.102	107.745	516.937	3.060
107.900	-0.114	107.845	551.096	3.689
108.000	-0.038	107.944	505.930	4.307
108.100	-0.012	108.046	322.257	4.676
108.200	-0.013	108.143	374.300	5.057
108.300	-0.019	108.241	344.593	5.623
108.400	-0.013	108.344	251.559	6.107
108.500	0.021	108.440	132.656	0.207
108.600	-0.011	108.548	81.256	5.924
108.700	-0.005	108.644	182.392	5.832
108.800	-0.022	108.743	232.350	6.236
108.900	-0.020	108.836	273.252	0.351
109.000	0.018	108.945	316.111	0.919
109.100	-0.010	109.038	274.413	1.364
109.200	0.002	109.147	265.862	1.602
109.300	0.008	109.241	263.847	1.989
109.400	0.006	109.338	253.111	2.211
109.500	-0.036	109.443	289.937	2.466
109.600	0.045	109.543	323.681	2.835
109.700	0.029	109.643	350.441	3.149
109.800	-0.039	109.749	400.357	3.565
109.900	-0.039	109.843	410.805	3.848
110.000	-0.077	109.940	524.117	4.080
110.100	-0.005	110.044	571.064	4.657
110.200	0.028	110.141	705.634	4.986
110.300	-0.083	110.245	876.415	5.550
110.400	0.139	110.340	895.132	6.168
110.500	0.032	110.442	1051.541	0.506
110.600	-0.055	110.543	830.749	1.162
110.700	-0.016	110.645	783.708	1.590
110.800	0.038	110.750	627.561	2.170
110.900	-0.131	110.844	550.696	2.517
111.000	0.142	110.941	514.411	2.889
111.100	-0.101	111.038	448.013	3.199
111.200	-0.060	111.143	462.960	3.568
111.300	-0.049	111.238	451.587	3.905
111.400	-0.059	111.339	477.097	4.351
111.500	0.006	111.448	412.806	4.810
111.600	-0.023	111.535	470.146	5.228
111.700	0.062	111.644	302.790	5.985
111.800	-0.036	111.744	203.932	6.109
111.900	-0.003	111.841	191.659	5.852
112.000	-0.013	111.946	269.752	6.039
112.100	-0.004	112.042	353.365	0.185
112.200	0.072	112.147	419.796	0.793
112.300	-0.000	112.245	382.189	1.224
112.400	-0.073	112.335	303.822	1.989
112.500	-0.018	112.441	299.665	2.117
112.600	0.024	112.541	281.337	2.391
112.700	-0.068	112.641	301.722	3.085
112.800	-0.045	112.741	214.440	3.294
112.900	-0.011	112.838	241.638	3.570
113.000	0.007	112.938	169.847	4.113
113.100	0.026	113.043	181.177	3.979
113.200	-0.020	113.145	194.552	4.578
113.300	-0.031	113.239	131.861	4.753
113.400	-0.015	113.340	166.006	4.907
113.500	-0.013	113.439	109.673	5.131
113.600	-0.045	113.541	189.577	4.992
113.700	0.003	113.641	200.693	5.673
113.800	-0.067	113.747	238.222	5.711
113.900	-0.035	113.840	336.924	6.177
114.000	-0.006	113.939	330.348	0.476
114.100	-0.041	114.043	398.607	0.808
114.200	0.037	114.141	388.042	1.413
114.300	-0.035	114.242	353.016	1.675
114.400	-0.018	114.344	415.826	2.107
114.500	0.074	114.449	363.668	2.634
114.600	0.091	114.541	390.144	2.826
114.700	-0.089	114.641	460.239	3.319
114.800	0.023	114.741	423.151	3.655
114.900	0.082	114.845	495.570	4.086
115.000	0.071	114.942	491.220	4.527
115.100	-0.012	115.042	533.943	4.924
115.200	0.044	115.141	494.135	5.559
115.300	-0.047	115.241	477.847	5.782
115.400	0.103	115.343	553.927	0.091
115.500	0.003	115.446	441.567	0.474
115.600	0.051	115.539	503.562	0.794
115.700	-0.029	115.643	506.879	1.251
115.800	-0.026	115.742	468.018	1.680
115.900	-0.037	115.839	528.314	2.139
116.000	0.017	115.943	479.614	2.762
116.100	0.058	116.043	405.921	3.061
116.200	-0.103	116.141	419.622	3.546
116.300	0.079	116.240	367.489	3.950
116.400	-0.006	116.341	346.915	4.337
116.500	0.003	116.440	279.369	5.035
116.600	0.030	116.545	193.454	5.155
116.700	0.011	116.643	192.373	5.324
116.800	0.023	116.746	175.090	5.683
116.900	0.019	116.843	177.620	5.877
117.000	0.011	116.938	188.181	6.206
117.100	0.053	117.038	194.222	0.387
117.200	0.009	117.145	151.695	0.694
117.300	0.054	117.237	129.208	1.091
117.400	0.058	117.340	86.163	1.365
117.500	-0.018	117.438	70.378	1.160
117.600	0.024	117.534	54.944	0.441
117.700	-0.047	117.645	213.078	0.613
117.800	0.035	117.739	334.720	1.224
117.900	-0.019	117.846	452.101	1.928
118.000	0.045	117.944	482.506	2.620
118.100	-0.104	118.043	501.632	3.201
118.200	0.057	118.147	435.090	3.733
118.300	-0.054	118.242	420.096	4.008
118.400	0.081	118.337	476.090	4.464
118.500	-0.005	118.441	477.781	4.990
118.600	-0.052	118.546	448.605	5.474
118.700	0.083	118.644	391.771	5.971
118.800	0.036	118.746	357.439	6.217
118.900	0.035	118.844	387.499	0.221
119.000	0.042	118.944	362.405	0.602
119.100	0.069	119.041	436.141	0.866
119.200	0.011	119.147	436.944	1.416
119.300	0.021	119.242	428.128	1.692
119.400	-0.020	119.347	546.442	2.315
119.500	0.006	119.443	435.141	2.748
119.600	0.126	119.542	537.265	3.077
119.700	-0.109	119.642	467.939	3.742
119.800	0.057	119.741	512.569	4.031
119.900	0.012	119.845	492.890	4.837
120.000	-0.055	119.935	343.333	5.247
120.100	0.061	120.044	354.137	5.567
120.200	0.032	120.140	281.643	6.154
120.300	-0.022	120.239	212.292	0.301
120.400	0.070	120.344	140.028	0.608
120.500	-0.010	120.444	114.084	0.313
120.600	-0.027	120.545	163.914	0.451
120.700	-0.008	120.640	171.383	1.068
120.800	0.017	120.745	161.973	1.046
120.900	-0.020	120.840	244.872	1.710
121.000	0.019	120.950	188.027	2.112
121.100	0.030	121.046	157.192	2.924
121.200	0.036	121.142	88.918	3.017
121.300	0.022	121.244	109.813	2.699
121.400	0.028	121.343	113.303	3.252
121.500	0.040	121.442	110.975	3.291
121.600	-0.022	121.542	120.079	3.700
121.700	-0.020	121.644	132.909	3.740
121.800	-0.024	121.738	159.328	4.079
121.900	0.003	121.845	156.744	4.345
122.000	-0.024	121.945	210.221	4.601
122.100	-0.035	122.043	257.814	5.082
122.200	0.006	122.143	270.605	5.520
122.300	0.011	122.237	312.863	6.018
122.400	0.043	122.339	295.456	0.249
122.500	-0.046	122.442	270.841	0.606
122.600	-0.068	122.541	306.125	0.860
122.700	-0.042	122.638	312.223	1.196
122.800	0.024	122.744	361.549	1.494
122.900	0.000	122.846	388.651	2.298
123.000	-0.031	122.940	312.049	2.546
123.100	0.080	123.039	349.234	2.764
123.200	0.027	123.145	375.188	3.166
123.300	-0.044	123.240	460.956	3.652
123.400	0.017	123.340	422.625	4.120
123.500	0.002	123.441	420.011	4.451
123.600	0.018	123.540	489.167	4.826
123.700	0.009	123.642	536.397	5.249
123.800	-0.073	123.742	598.695	5.870
123.900	0.007	123.841	579.537	0.161
124.000	-0.070	123.943	588.433	0.614
124.100	-0.000	124.046	509.631	1.158
124.200	-0.059	124.145	434.674	1.629
124.300	-0.012	124.240	456.814	2.048
124.400	0.015	124.339	410.983	2.591
124.500	-0.054	124.446	347.732	3.136
124.600	0.083	124.547	245.378	3.789
124.700	-0.035	124.640	190.850	3.796
124.800	-0.038	124.750	189.812	4.327
124.900	0.031	124.840	117.224	4.642
125.000	0.015	124.944	90.754	4.621
125.100	0.003	125.044	79.785	4.965
125.200	-0.032	125.140	63.761	4.770
125.300	-0.040	125.245	82.162	4.676
125.400	-0.048	125.339	124.101	4.827
125.500	-0.015	125.440	161.502	5.363
125.600	-0.033	125.537	202.990	5.922
125.700	0.031	125.641	159.662	0.328
125.800	-0.005	125.747	112.490	0.514
125.900	0.065	125.843	126.446	0.604
126.000	-0.030	125.945	112.179	0.584
126.100	-0.001	126.045	204.481	0.728
126.200	0.013	126.141	243.721	1.237
126.300	-0.052	126.247	310.332	1.639
126.400	0.020	126.342	358.080	2.275
126.500	0.024	126.442	370.449	2.750
126.600	0.053	126.544	378.275	3.315
126.700	0.058	126.642	325.523	3.728
126.800	-0.044	126.743	339.867	4.027
126.900	0.002	126.846	344.331	4.414
127.000	0.034	126.950	363.146	4.767
127.100	-0.015	127.041	410.743	5.272
127.200	0.014	127.141	379.276	5.636
127.300	-0.075	127.244	429.274	6.103
127.400	0.068	127.344	366.724	0.282
127.500	-0.101	127.450	415.604	0.542
127.600	-0.040	127.546	436.013	1.114
127.700	-0.036	127.653	380.672	1.390
127.800	0.030	127.743	429.762	1.866
127.900	0.067	127.850	370.940	2.209
128.000	0.009	127.944	502.425	2.425
128.100	-0.028	128.043	555.553	3.179
128.200	0.054	128.144	608.290	3.593
128.300	0.058	128.248	581.131	4.506
128.400	-0.009	128.348	399.667	4.883
128.500	0.023	128.446	389.910	5.418
128.600	-0.036	128.545	246.403	5.979
128.700	0.083	128.643	181.094	6.156
128.800	-0.059	128.739	155.977	6.266
128.900	-0.024	128.842	118.831	0.071
129.000	-0.019	128.948	163.220	0.122
129.100	0.033	129.047	193.350	0.687
129.200	-0.012	129.144	179.452	0.925
129.300	-0.014	129.244	157.373	1.354
129.400	0.047	129.343	146.114	1.500
129.500	-0.034	129.441	223.583	1.598
129.600	0.029	129.546	263.546	2.443
129.700	0.038	129.646	246.085	3.116
129.800	0.024	129.746	109.313	3.627
129.900	0.035	129.844	138.950	3.401
130.000	0.048	129.944	104.637	3.944
130.100	0.074	130.041	101.469	3.712
130.200	-0.009	130.142	141.117	4.004
130.300	0.003	130.241	153.952	4.259
130.400	-0.016	130.341	184.419	4.647
130.500	0.017	130.442	197.160	5.094
130.600	0.011	130.540	193.940	5.473
130.700	0.013	130.648	216.248	5.825
130.800	0.007	130.743	225.182	6.227
130.900	-0.057	130.841	214.780	0.183
131.000	-0.045	130.948	261.319	0.542
131.100	0.001	131.053	274.678	0.875
131.200	-0.012	131.151	355.426	1.290
131.300	-0.065	131.243	316.472	1.923
131.400	0.033	131.347	331.775	2.182
131.500	-0.036	131.445	360.568	2.802
131.600	-0.020	131.550	272.753	3.167
131.700	0.065	131.648	270.925	3.264
131.800	-0.068	131.746	317.498	3.456
131.900	0.053	131.844	416.467	3.863
132.000	0.091	131.942	472.107	4.351
132.100	-0.009	132.040	507.558	4.795
132.200	-0.036	132.143	565.429	5.267
132.300	-0.038	132.244	659.314	5.770
132.400	0.105	132.344	704.104	0.103
132.500	-0.121	132.439	697.104	0.559
132.600	0.056	132.549	706.099	1.249
132.700	-0.019	132.646	694.767	1.785
132.800	-0.046	132.746	566.810	2.483
132.900	-0.002	132.840	462.270	3.007
133.000	-0.080	132.944	308.513	3.456
133.100	0.071	133.046	281.131	3.697
133.200	0.009	133.143	240.365	4.289
133.300	0.030	133.244	169.656	4.514
133.400	-0.012	133.345	98.585	5.025
133.500	-0.042	133.446	47.788	4.413
133.600	0.033	133.544	80.654	4.453
133.700	-0.024	133.644	120.804	4.386
133.800	0.090	133.747	171.675	4.769
133.900	-0.003	133.847	176.441	5.272
134.000	-0.016	133.941	242.847	5.600
134.100	0.037	134.046	242.638	6.252
134.200	0.014	134.140	238.799	0.159
134.300	0.013	134.241	272.051	0.826
134.400	-0.008	134.347	229.314	1.176
134.500	-0.025	134.442	191.412	1.610
134.600	-0.011	134.540	163.903	1.768
134.700	-0.059	134.642	208.417	1.823
134.800	0.017	134.745	234.141	2.375
134.900	-0.066	134.844	209.999	2.536
135.000	0.073	134.939	307.982	3.003
135.100	-0.033	135.048	280.230	3.429
135.200	0.027	135.141	310.251	3.661
135.300	0.017	135.244	345.150	4.194
135.400	0.028	135.345	337.262	4.538
135.500	0.046	135.444	367.336	5.031
135.600	0.075	135.543	368.224	5.357
135.700	0.060	135.642	442.073	5.772
135.800	-0.060	135.740	432.423	0.085
135.900	0.062	135.844	442.580	0.450
136.000	0.077	135.944	415.115	0.933
136.100	-0.055	136.039	377.587	1.257
136.200	0.014	136.141	431.468	1.780
136.300	-0.029	136.242	344.371	2.118
136.400	-0.019	136.345	426.986	2.460
136.500	0.072	136.441	403.208	2.926
136.600	-0.015	136.543	446.403	3.210
136.700	0.050	136.647	548.553	3.981
136.800	-0.014	136.744	455.410	4.472
136.900	-0.013	136.843	397.325	5.086
137.000	-0.056	136.948	267.118	5.675
137.100	0.012	137.043	214.224	5.699
137.200	-0.010	137.145	195.884	6.066
137.300	-0.002	137.250	177.384	6.217
137.400	0.058	137.344	264.024	0.143
137.500	0.016	137.439	208.597	0.983
137.600	0.018	137.541	136.135	1.061
137.700	-0.040	137.646	160.211	1.414
137.800	-0.010	137.744	85.803	1.515
137.900	-0.027	137.846	158.385	1.550
138.000	-0.020	137.942	149.111	2.029
138.100	-0.027	138.044	202.382	2.164
138.200	-0.039	138.144	230.201	2.751
138.300	-0.077	138.245	263.039	3.250
138.400	0.047	138.340	229.389	3.954
138.500	0.004	138.445	148.538	4.188
138.600	-0.035	138.542	151.164	4.549
138.700	0.046	138.644	113.092	4.785
138.800	0.002	138.743	100.049	4.885
138.900	-0.048	138.845	87.684	4.517
139.000	-0.009	138.947	183.013	4.800
139.100	0.016	139.051	230.725	5.358
139.200	-0.011	139.149	247.667	5.782
139.300	0.002	139.242	290.129	6.165
139.400	0.026	139.344	303.031	0.310
139.500	0.053	139.447	324.358	0.578
139.600	0.088	139.543	414.132	1.022
139.700	-0.015	139.646	451.290	1.544
139.800	-0.006	139.748	521.197	2.062
139.900	0.074	139.839	461.383	2.597
140.000	-0.026	139.946	463.936	2.975
140.100	0.030	140.046	543.628	3.310
140.200	-0.021	140.143	620.690	3.834
140.300	-0.018	140.243	518.154	4.454
140.400	-0.020	140.346	532.391	4.734
140.500	-0.046	140.440	588.049	5.270
140.600	0.026	140.541	566.323	5.613
140.700	-0.117	140.650	703.478	6.276
140.800	0.008	140.737	555.845	0.531
140.900	-0.043	140.848	562.503	0.966
141.000	0.064	140.943	475.512	1.581
141.100	0.009	141.040	389.392	1.986
141.200	-0.078	141.143	368.545	2.338
141.300	-0.026	141.249	324.568	2.791
141.400	-0.075	141.344	309.394	3.096
141.500	0.086	141.444	283.267	3.692
141.600	0.000	141.544	208.352	4.005
141.700	0.070	141.646	188.915	4.282
141.800	-0.015	141.738	176.235	4.776
141.900	-0.018	141.847	119.764	5.128
142.000	-0.043	141.942	96.897	5.449
142.100	0.007	142.047	52.830	4.943
142.200	0.008	142.142	100.423	4.887
142.300	-0.037	142.243	122.016	5.240
142.400	0.007	142.335	202.246	5.574
142.500	0.060	142.442	200.214	0.035
142.600	-0.016	142.548	210.296	0.264
142.700	-0.013	142.640	215.543	0.980
142.800	-0.020	142.745	157.865	1.253
142.900	-0.005	142.841	177.217	1.570
143.000	-0.013	142.941	145.530	1.946
143.100	-0.026	143.042	138.342	2.221
143.200	-0.024	143.143	153.772	2.313
143.300	0.003	143.248	171.450	2.662
143.400	-0.003	143.341	176.240	2.977
143.500	-0.002	143.441	211.062	3.178
143.600	-0.017	143.546	275.036	3.659
143.700	0.029	143.642	246.392	4.207
143.800	0.037	143.746	220.472	4.419
143.900	-0.001	143.850	284.653	4.859
144.000	0.025	143.944	266.313	5.153
144.100	0.024	144.043	376.895	5.553
144.200	-0.015	144.143	329.331	6.117
144.300	-0.011	144.244	417.052	0.015
144.400	-0.026	144.341	462.055	0.693
144.500	0.031	144.441	472.515	1.088
144.600	0.026	144.540	499.988	1.794
144.700	-0.035	144.640	415.340	2.229
144.800	0.106	144.741	453.188	2.718
144.900	0.059	144.845	352.190	3.223
145.000	-0.071	144.945	344.605	3.463
145.100	-0.045	145.044	336.043	4.086
145.200	0.025	145.142	287.873	4.348
145.300	-0.013	145.242	290.780	4.959
145.400	0.010	145.341	182.194	5.245
145.500	0.021	145.445	193.418	5.274
145.600	0.027	145.548	226.274	5.595
145.700	0.002	145.648	259.128	6.024
145.800	-0.009	145.740	283.616	0.417
145.900	0.011	145.844	178.962	0.902
146.000	-0.027	145.954	139.866	0.873
146.100	0.009	146.045	146.585	1.299
146.200	-0.030	146.140	150.781	1.402
146.300	-0.016	146.242	180.087	1.716
146.400	-0.067	146.349	176.935	2.231
146.500	0.041	146.443	179.072	2.413
146.600	-0.058	146.539	211.619	2.892
146.700	0.023	146.641	194.006	3.387
146.800	0.035	146.743	177.455	3.824
146.900	0.053	146.843	145.463	4.046
147.000	-0.007	146.944	144.533	4.479
147.100	0.003	147.041	119.504	4.800
147.200	0.035	147.138	92.260	4.863
147.300	0.023	147.245	83.835	4.707
147.400	0.048	147.341	167.946	4.713
147.500	0.014	147.448	257.602	5.265
147.600	0.015	147.538	305.540	5.728
147.700	-0.046	147.642	346.947	0.210
147.800	-0.085	147.743	316.395	0.507
147.900	0.037	147.844	366.642	0.930
148.000	0.022	147.942	315.480	1.410
148.100	-0.011	148.041	393.683	1.825
148.200	-0.075	148.142	385.794	2.444
148.300	0.024	148.244	330.072	2.678
148.400	-0.066	148.344	344.111	3.082
148.500	0.078	148.450	373.951	3.407
148.600	0.031	148.542	451.875	3.803
148.700	-0.027	148.646	417.789	4.349
148.800	-0.016	148.743	452.681	4.769
148.900	0.077	148.844	454.723	5.346
149.000	-0.057	148.943	496.906	5.743
149.100	0.141	149.043	481.890	0.113
149.200	0.080	149.143	369.159	0.461
149.300	-0.062	149.243	402.108	0.922
149.400	-0.002	149.349	327.534	1.458
149.500	0.052	149.443	299.361	1.866
149.600	-0.019	149.542	255.389	2.279
149.700	0.021	149.642	224.498	2.600
149.800	0.063	149.747	219.099	2.810
149.900	0.054	149.841	230.213	3.289
150.000	0.002	149.949	184.955	3.695
150.100	-0.031	150.045	182.016	3.927
150.200	0.025	150.142	172.002	4.355
150.300	-0.002	150.243	179.931	4.633
150.400	0.030	150.350	176.019	5.223
150.500	0.000	150.447	142.511	5.755
150.600	-0.012	150.539	87.547	6.013
150.700	0.044	150.643	69.366	5.913
150.800	-0.043	150.744	89.164	5.939
150.900	0.022	150.841	104.956	6.230
151.000	-0.007	150.940	112.065	0.210
151.100	0.021	151.048	123.559	0.426
151.200	0.025	151.140	166.883	0.840
151.300	-0.047	151.246	173.344	1.644
151.400	0.035	151.352	120.922	1.973
151.500	0.013	151.448	122.764	2.354
151.600	-0.024	151.543	81.645	2.458
151.700	0.044	151.646	101.812	2.294
151.800	-0.037	151.744	129.909	2.498
151.900	0.025	151.854	191.432	2.797
152.000	0.096	151.943	290.690	3.349
152.100	0.025	152.045	245.597	4.016
152.200	-0.010	152.144	257.735	4.195
152.300	-0.040	152.241	285.837	4.699
152.400	0.044	152.343	335.026	5.088
152.500	-0.069	152.446	385.811	5.710
152.600	0.022	152.546	345.767	6.080
152.700	-0.048	152.641	413.793	0.196
152.800	-0.030	152.742	364.298	0.757
152.900	0.010	152.839	410.665	1.078
153.000	-0.057	152.941	385.010	1.735
153.100	-0.030	153.039	369.106	2.092
153.200	0.043	153.140	367.922	2.633
153.300	-0.016	153.242	307.066	2.905
153.400	-0.052	153.345	374.760	3.255
153.500	-0.098	153.446	332.587	3.785
153.600	0.009	153.544	378.740	4.135
153.700	-0.003	153.646	330.356	4.837
153.800	0.023	153.744	283.538	5.143
153.900	-0.033	153.843	300.565	5.634
154.000	0.032	153.946	234.733	6.139
154.100	0.027	154.040	193.908	0.166
154.200	0.020	154.143	152.790	0.520
154.300	-0.020	154.244	128.479	0.490
154.400	0.018	154.346	153.511	0.746
154.500	-0.005	154.444	153.840	1.034
154.600	-0.034	154.544	174.822	1.475
154.700	0.006	154.645	166.129	1.973
154.800	-0.028	154.742	133.862	2.303
154.900	-0.006	154.843	115.190	2.386
155.000	-0.024	154.946	138.854	2.657
155.100	0.011	155.045	146.076	2.693
155.200	-0.087	155.141	221.468	3.086
155.300	-0.066	155.242	246.646	3.561
155.400	0.004	155.345	276.732	4.208
155.500	-0.048	155.445	234.405	4.690
155.600	-0.005	155.545	219.402	5.127
155.700	-0.025	155.638	208.530	5.355
155.800	-0.020	155.745	236.209	5.918
155.900	-0.009	155.840	139.945	6.203
156.000	-0.004	155.943	188.746	6.225
156.100	-0.005	156.042	185.989	0.288
156.200	-0.030	156.147	247.475	0.551
156.300	0.021	156.243	246.766	1.185
156.400	0.016	156.342	221.876	1.283
156.500	0.007	156.438	313.669	1.687
156.600	0.031	156.542	301.315	2.196
156.700	-0.087	156.647	359.705	2.488
156.800	-0.071	156.747	415.889	3.034
156.900	0.053	156.844	412.704	3.414
157.000	-0.058	156.939	484.996	3.960
157.100	0.036	157.047	419.773	4.482
157.200	-0.027	157.138	491.707	4.822
157.300	-0.070	157.245	476.870	5.425
157.400	0.099	157.347	514.265	5.891
157.500	-0.072	157.438	455.213	0.253
157.600	0.029	157.548	421.009	0.610
157.700	0.080	157.642	378.561	1.142
157.800	-0.009	157.742	342.187	1.559
157.900	-0.028	157.846	313.558	2.125
158.000	-0.060	157.945	233.941	2.451
158.100	-0.048	158.046	213.632	2.647
158.200	-0.053	158.141	212.948	2.939
158.300	0.023	158.245	230.487	3.187
158.400	0.071	158.343	265.336	3.789
158.500	0.002	158.442	214.580	4.203
158.600	0.036	158.544	233.054	4.718
158.700	0.043	158.643	171.508	5.179
158.800	0.034	158.742	166.496	5.522
158.900	0.002	158.843	123.492	5.956
159.000	-0.016	158.944	110.722	6.166
159.100	0.023	159.042	87.214	0.327
159.200	-0.007	159.137	61.783	0.269
159.300	0.031	159.242	67.109	0.242
159.400	-0.046	159.340	81.226	0.469
159.500	-0.027	159.443	87.023	0.755
159.600	0.044	159.544	98.258	1.050
159.700	0.020	159.640	101.309	1.312
159.800	0.020	159.742	135.657	1.744
159.900	-0.048	159.839	89.703	2.349
160.000	0.007	159.950	81.503	2.021
160.100	-0.026	160.047	113.249	2.236
160.200	0.019	160.145	187.209	2.229
160.300	0.021	160.238	313.100	2.931
160.400	-0.078	160.341	312.950	3.780
160.500	0.028	160.447	286.910	4.051
160.600	0.063	160.542	378.568	4.563
160.700	0.005	160.639	359.392	5.127
160.800	-0.055	160.743	429.720	5.623
160.900	0.060	160.842	345.748	0.024
161.000	0.068	160.945	314.895	0.230
161.100	-0.042	161.042	327.066	0.727
161.200	-0.007	161.140	304.066	1.123
161.300	-0.044	161.244	338.598	1.574
161.400	0.094	161.350	310.690	1.998
161.500	-0.012	161.443	323.497	2.402
161.600	-0.037	161.541	289.487	2.893
161.700	0.011	161.652	286.988	3.240
161.800	-0.078	161.741	286.498	3.587
161.900	0.042	161.836	286.476	4.048
162.000	0.069	161.949	280.112	4.585
162.100	0.023	162.044	233.776	4.924
162.200	0.025	162.143	253.037	5.226
162.300	0.016	162.246	256.902	5.708
162.400	-0.035	162.343	270.145	6.167
162.500	0.015	162.445	216.974	0.493
162.600	-0.013	162.541	160.204	0.765
162.700	0.037	162.642	170.477	1.011
162.800	0.022	162.746	148.312	1.486
162.900	-0.006	162.846	114.835	1.672
163.000	-0.031	162.940	126.216	1.961
163.100	0.002	163.042	112.822	2.222
163.200	-0.008	163.141	119.199	2.284
163.300	0.012	163.244	133.533	2.678
163.400	-0.020	163.348	142.148	2.965
163.500	-0.034	163.444	157.968	3.270
163.600	-0.005	163.543	185.069	3.650
163.700	-0.042	163.641	193.707	4.197
163.800	-0.032	163.743	174.015	4.562
163.900	-0.024	163.842	190.425	4.943
164.000	-0.030	163.949	168.626	5.319
164.100	0.066	164.044	195.720	5.608
164.200	0.010	164.138	185.654	6.033
164.300	-0.017	164.241	184.622	0.088
164.400	0.067	164.341	183.768	0.468
164.500	-0.016	164.442	169.152	0.599
164.600	-0.035	164.541	230.876	0.972
164.700	-0.001	164.641	226.384	1.395
164.800	-0.022	164.739	319.054	1.708
164.900	0.062	164.847	303.387	2.400
165.000	0.022	164.945	301.307	2.648
165.100	-0.003	165.038	355.240	3.166
165.200	0.102	165.147	341.540	3.529
165.300	-0.067	165.244	436.545	4.062
165.400	-0.037	165.341	367.100	4.716
165.500	-0.081	165.446	395.582	5.030
165.600	0.049	165.546	358.071	5.623
165.700	0.086	165.642	366.992	5.865
165.800	-0.087	165.746	395.882	0.295
165.900	-0.020	165.844	332.342	0.679
166.000	0.050	165.940	336.605	1.245
166.100	-0.056	166.043	267.416	1.644
166.200	-0.001	166.138	288.196	1.987
166.300	0.066	166.236	242.989	2.554
166.400	-0.026	166.342	225.085	2.856
166.500	-0.003	166.440	200.368	3.389
166.600	-0.030	166.542	168.343	3.716
166.700	0.002	166.646	159.233	4.050
166.800	0.009	166.742	147.532	4.459
166.900	0.036	166.839	136.007	4.815
167.000	-0.013	166.945	135.175	5.275
167.100	0.004	167.043	104.160	5.609
167.200	-0.016	167.135	109.418	5.948
167.300	0.019	167.239	86.046	0.216
167.400	-0.011	167.341	71.211	0.422
167.500	-0.005	167.447	49.683	0.781
167.600	-0.003	167.543	44.969	0.956
167.700	0.004	167.645	35.421	1.423
167.800	0.034	167.742	6.884	0.174
167.900	0.001	167.837	41.019	0.422
168.000	-0.041	167.947	60.116	0.629
168.100	-0.025	168.043	85.296	1.129
168.200	0.002	168.138	101.046	1.613
168.300	-0.017	168.239	107.237	1.948
168.400	-0.046	168.343	134.972	2.280
168.500	-0.011	168.440	147.402	2.752
168.600	-0.026	168.538	181.841	3.034
168.700	-0.061	168.645	240.363	3.542
168.800	-0.026	168.740	264.312	4.151
168.900	0.030	168.844	274.188	4.700
169.000	-0.019	168.941	246.414	5.286
169.100	-0.054	169.041	241.057	5.451
169.200	-0.048	169.143	338.252	6.012
169.300	-0.100	169.242	301.487	0.384
169.400	-0.054	169.347	277.115	0.971
169.500	-0.044	169.442	208.741	1.322
169.600	0.027	169.545	216.893	1.503
169.700	-0.035	169.643	258.907	1.957
169.800	-0.021	169.744	255.425	2.481
169.900	0.022	169.844	250.568	2.884
170.000	-0.002	169.942	247.897	3.359
170.100	0.029	170.045	234.702	3.826
170.200	-0.039	170.145	207.282	4.318
170.300	0.011	170.242	182.023	4.610
170.400	0.019	170.347	200.812	4.846
170.500	-0.025	170.445	259.466	5.465
170.600	0.007	170.544	197.998	6.111
170.700	0.023	170.646	158.929	0.092
170.800	0.016	170.742	163.831	0.348
170.900	-0.004	170.844	191.153	0.818
171.000	-0.007	170.946	181.373	1.469
171.100	0.009	171.046	126.405	2.077
171.200	0.020	171.147	98.439	2.127
171.300	0.007	171.240	102.289	2.472
171.400	0.006	171.344	86.524	2.817
171.500	0.009	171.442	85.760	3.086
171.600	0.028	171.548	70.762	3.365
171.700	-0.012	171.642	79.390	3.548
171.800	-0.005	171.744	90.353	4.027
171.900	-0.013	171.843	63.650	4.401
172.000	-0.026	171.946	69.058	4.378
172.100	0.022	172.042	93.268	4.629
172.200	0.030	172.141	110.236	5.159
172.300	-0.063	172.240	110.530	5.612
172.400	-0.021	172.344	100.133	6.090
172.500	0.027	172.445	97.669	6.231
172.600	0.026	172.540	126.516	0.312
172.700	0.024	172.648	145.280	1.022
172.800	-0.023	172.741	108.070	1.574
172.900	0.025	172.844	86.990	1.631
173.000	-0.015	172.944	112.598	1.965
173.100	-0.015	173.044	111.001	2.416
173.200	0.013	173.144	115.785	2.620
173.300	0.055	173.246	130.474	3.144
173.400	-0.059	173.344	139.397	3.506
173.500	0.027	173.443	141.195	4.025
173.600	-0.029	173.543	149.281	4.397
173.700	-0.003	173.647	172.576	4.876
173.800	0.024	173.744	197.682	5.492
173.900	-0.064	173.846	152.166	0.066
174.000	-0.007	173.941	86.992	0.218
174.100	-0.006	174.041	107.939	0.295
174.200	0.025	174.143	129.700	0.707
174.300	-0.021	174.244	159.425	1.518
174.400	0.002	174.348	93.033	2.270
174.500	0.005	174.449	63.543	2.247
174.600	-0.015	174.545	69.163	2.392
174.700	0.007	174.640	108.807	2.735
174.800	-0.027	174.742	97.811	3.760
174.900	0.020	174.848	62.260	4.192
175.000	-0.035	174.946	47.133	4.508
175.100	-0.030	175.040	38.437	4.593
175.200	0.015	175.147	41.113	5.036
175.300	0.024	175.245	34.473	5.452
175.400	-0.017	175.347	26.284	5.626
175.500	0.001	175.441	25.131	5.877
175.600	0.000	175.539	23.472	6.234
175.700	-0.016	175.643	15.863	0.004
175.800	-0.024	175.747	18.363	6.207
175.900	-0.006	175.840	24.520	0.147
176.000	0.002	175.941	28.820	0.840
176.100	-0.004	176.046	15.540	1.170
176.200	0.010	176.144	15.372	0.984
176.300	0.025	176.243	30.450	0.715
176.400	-0.012	176.339	41.301	1.214
176.500	0.028	176.447	56.993	1.739
176.600	-0.018	176.545	64.128	2.323
176.700	-0.008	176.643	78.375	2.743
176.800	0.007	176.748	70.145	3.492
176.900	0.015	176.846	61.940	3.770
177.000	0.035	176.945	64.427	3.944
177.100	0.018	177.045	98.798	4.440
177.200	-0.022	177.149	112.454	5.173
177.300	0.024	177.241	72.907	6.084
177.400	-0.003	177.349	49.958	6.002
177.500	0.014	177.445	59.376	5.900
177.600	0.046	177.545	107.012	0.046
177.700	-0.001	177.645	132.741	1.035
177.800	-0.016	177.748	79.107	1.860
177.900	0.025	177.844	51.612	1.859
178.000	0.009	177.940	74.025	1.983
178.100	-0.039	178.046	78.564	2.613
178.200	-0.019	178.142	78.111	3.011
178.300	-0.023	178.245	69.142	3.625
178.400	0.027	178.338	62.104	3.725
178.500	-0.020	178.445	85.511	4.412
178.600	-0.004	178.552	50.932	5.026
178.700	-0.012	178.641	45.658	4.923
178.800	-0.012	178.743	66.462	5.211
178.900	-0.038	178.845	78.559	5.941
179.000	-0.022	178.943	59.025	0.320
179.100	0.010	179.043	44.315	0.669
179.200	-0.014	179.144	43.947	0.840
179.300	-0.010	179.246	56.261	1.132
179.400	-0.003	179.343	58.914	1.947
179.500	0.021	179.448	38.501	2.516
179.600	-0.019	179.546	28.714	2.559
179.700	0.010	179.642	35.778	2.976
179.800	-0.040	179.743	24.969	3.590
179.900	-0.002	179.844	18.249	3.856
180.000	0.023	179.950	14.632	3.914
